OOIBase32 Version 1.0.0.8 Data File
++++++++++++++++++++++++++++++++++++
Date: Friday, January 04, 1980, 00:19:37
User: Valued Ocean Optics Customer
Spectrometer Serial Number: Unknown
Spectrometer Channel: Master
Integration Time (msec): 100
Spectra Averaged: 5
Boxcar Smoothing: 3
Correct for Electrical Dark: Disabled
Time Normalized: Disabled
Dual-beam Reference: Disabled
Reference Channel: Master
>>>>>Begin Spectral Data<<<<<
179.00	0.0000
179.38	0.0000
179.75	-0.0000
180.13	0.0000
180.51	0.0000
180.88	0.0000
181.26	0.0000
181.64	0.0000
182.02	0.0000
182.39	0.0000
182.77	0.0000
183.15	0.0000
183.52	0.0000
183.90	0.0000
184.28	0.0000
184.65	0.0000
185.03	0.0000
185.41	0.0000
185.78	0.0000
186.16	0.0000
186.53	0.0000
186.91	0.0000
187.29	0.0000
187.66	0.0000
188.04	0.0000
188.42	0.0000
188.79	0.0000
189.17	0.0000
189.55	0.0000
189.92	0.0000
190.30	-0.0000
190.67	0.0000
191.05	0.0000
191.43	0.0000
191.80	0.0000
192.18	0.0000
192.56	0.0000
192.93	0.0000
193.31	0.0000
193.68	0.0000
194.06	0.0000
194.44	0.0000
194.81	0.0000
195.19	0.0000
195.56	0.0000
195.94	0.0000
196.32	0.0000
196.69	0.0000
197.07	0.0000
197.44	0.0000
197.82	-0.0000
198.19	-0.0000
198.57	-0.0000
198.95	-0.0000
199.32	-0.0000
199.70	0.0000
200.07	0.0000
200.45	0.0000
200.82	0.0000
201.20	-0.0000
201.57	0.0000
201.95	0.0000
202.33	0.0000
202.70	0.0000
203.08	0.0000
203.45	0.0000
203.83	0.0000
204.20	0.0000
204.58	0.0000
204.95	-0.0000
205.33	-0.0000
205.70	0.0000
206.08	0.0000
206.45	0.0000
206.83	0.0000
207.20	-0.0000
207.58	0.0000
207.95	0.0000
208.33	0.0000
208.70	0.0000
209.08	0.0000
209.45	0.0000
209.83	0.0000
210.20	0.0000
210.58	0.0000
210.95	0.0000
211.33	0.0000
211.70	-0.0000
212.08	0.0000
212.45	0.0000
212.83	0.0000
213.20	0.0000
213.58	0.0000
213.95	0.0000
214.33	0.0000
214.70	-0.0000
215.07	-0.0000
215.45	0.0000
215.82	0.0000
216.20	0.0000
216.57	-0.0000
216.95	0.0000
217.32	0.0000
217.70	-0.0000
218.07	0.0000
218.44	0.0000
218.82	0.0000
219.19	0.0000
219.57	0.0000
219.94	0.0000
220.32	-0.0000
220.69	0.0000
221.06	0.0000
221.44	0.0000
221.81	-0.0000
222.19	0.0000
222.56	0.0000
222.93	0.0000
223.31	-0.0000
223.68	0.0000
224.06	0.0000
224.43	0.0000
224.80	-0.0000
225.18	0.0000
225.55	0.0000
225.92	0.0000
226.30	0.0000
226.67	0.0000
227.05	0.0000
227.42	0.0000
227.79	0.0000
228.17	-0.0000
228.54	-0.0000
228.91	0.0000
229.29	0.0000
229.66	-0.0000
230.03	0.0000
230.41	-0.0000
230.78	0.0000
231.15	0.0000
231.53	-0.0001
231.90	0.0000
232.27	0.0000
232.65	0.0000
233.02	0.0000
233.39	0.0000
233.77	0.0000
234.14	-0.0000
234.51	-0.0000
234.89	0.0001
235.26	0.0000
235.63	-0.0000
236.01	-0.0000
236.38	0.0000
236.75	0.0000
237.12	-0.0000
237.50	-0.0000
237.87	-0.0000
238.24	0.0000
238.62	0.0000
238.99	0.0000
239.36	0.0000
239.73	0.0000
240.11	0.0000
240.48	0.0000
240.85	0.0000
241.23	0.0000
241.60	0.0000
241.97	0.0000
242.34	0.0000
242.72	0.0000
243.09	0.0000
243.46	0.0002
243.83	0.0000
244.21	0.0000
244.58	0.0000
244.95	0.0000
245.32	0.0000
245.70	0.0000
246.07	0.0000
246.44	0.0000
246.81	0.0000
247.18	0.0000
247.56	0.0000
247.93	0.0000
248.30	0.0000
248.67	0.0000
249.04	0.0000
249.42	0.0000
249.79	0.0000
250.16	0.0000
250.53	0.0000
250.90	0.0000
251.28	0.0000
251.65	0.0000
252.02	0.0000
252.39	0.0001
252.76	0.0002
253.14	-0.0001
253.51	-0.0001
253.88	0.0000
254.25	0.0000
254.62	0.0000
254.99	0.0000
255.37	0.0000
255.74	-0.0000
256.11	-0.0000
256.48	-0.0000
256.85	0.0000
257.22	0.0000
257.59	0.0000
257.97	0.0000
258.34	0.0000
258.71	0.0000
259.08	-0.0000
259.45	-0.0000
259.82	-0.0007
260.19	-0.0001
260.56	-0.0000
260.94	-0.0000
261.31	0.0000
261.68	0.0001
262.05	0.0000
262.42	0.0001
262.79	0.0001
263.16	0.0002
263.53	-0.0001
263.90	-0.0000
264.28	-0.0001
264.65	-0.0003
265.02	0.0000
265.39	-0.0001
265.76	0.0000
266.13	0.0000
266.50	0.0000
266.87	0.0000
267.24	0.0000
267.61	0.0000
267.98	0.0000
268.35	0.0000
268.72	0.0000
269.09	-0.0000
269.46	0.0002
269.84	0.0002
270.21	0.0001
270.58	0.0000
270.95	0.0001
271.32	0.0000
271.69	0.0000
272.06	0.0002
272.43	0.0005
272.80	0.0003
273.17	0.0001
273.54	0.0001
273.91	0.0001
274.28	0.0001
274.65	0.0001
275.02	0.0001
275.39	0.0001
275.76	0.0001
276.13	0.0001
276.50	0.0002
276.87	0.0005
277.24	0.0006
277.61	0.0004
277.98	0.0002
278.35	0.0002
278.72	0.0001
279.09	0.0001
279.46	0.0001
279.83	0.0001
280.20	0.0001
280.57	0.0001
280.94	0.0001
281.31	0.0000
281.67	-0.0001
282.04	-0.0001
282.41	0.0018
282.78	0.0011
283.15	0.0003
283.52	0.0002
283.89	0.0002
284.26	0.0003
284.63	0.0001
285.00	0.0001
285.37	0.0001
285.74	0.0002
286.11	0.0001
286.48	-0.0000
286.85	0.0001
287.21	0.0003
287.58	0.0000
287.95	0.0000
288.32	-0.0010
288.69	0.0001
289.06	0.0001
289.43	0.0001
289.80	0.0001
290.17	0.0003
290.54	0.0003
290.90	0.0003
291.27	0.0002
291.64	0.0003
292.01	0.0002
292.38	0.0002
292.75	0.0002
293.12	0.0002
293.48	0.0002
293.85	0.0002
294.22	0.0003
294.59	0.0004
294.96	0.0017
295.33	0.0000
295.70	0.0013
296.06	-0.0060
296.43	0.0000
296.80	0.0008
297.17	0.0005
297.54	0.0003
297.91	0.0005
298.27	0.0004
298.64	0.0002
299.01	0.0003
299.38	0.0004
299.75	0.0004
300.11	0.0004
300.48	0.0001
300.85	0.0001
301.22	0.0001
301.59	-0.0008
301.95	0.0084
302.32	-0.0038
302.69	-0.0018
303.06	-0.0002
303.43	0.0002
303.79	0.0005
304.16	0.0013
304.53	-0.0023
304.90	-0.0001
305.26	0.0003
305.63	0.0006
306.00	0.0012
306.37	-0.0005
306.73	-0.0003
307.10	0.0001
307.47	0.0004
307.84	0.0006
308.20	0.0008
308.57	0.0008
308.94	0.0014
309.31	0.0017
309.67	0.0018
310.04	0.0013
310.41	0.0012
310.77	0.0014
311.14	0.0041
311.51	0.0011
311.88	0.0009
312.24	0.0007
312.61	0.0006
312.98	0.0001
313.34	-0.0007
313.71	0.0005
314.08	0.0003
314.44	0.0007
314.81	0.0001
315.18	-0.0007
315.55	0.0025
315.91	0.0003
316.28	0.0004
316.65	0.0003
317.01	0.0002
317.38	0.0003
317.75	0.0003
318.11	0.0003
318.48	0.0001
318.84	0.0001
319.21	0.0000
319.58	-0.0009
319.94	0.0000
320.31	0.0007
320.68	0.0000
321.04	-0.0004
321.41	0.0024
321.78	0.0000
322.14	0.0001
322.51	0.0001
322.87	0.0003
323.24	0.0002
323.61	0.0004
323.97	0.0004
324.34	0.0005
324.70	0.0005
325.07	0.0006
325.44	0.0003
325.80	0.0003
326.17	-0.0077
326.53	0.0002
326.90	-0.0005
327.27	-0.0024
327.63	-0.0025
328.00	0.0016
328.36	-0.0038
328.73	0.0035
329.09	-0.0072
329.46	-0.0021
329.83	0.0045
330.19	0.0021
330.56	0.0013
330.92	0.0012
331.29	0.0011
331.65	0.0007
332.02	0.0012
332.38	0.0016
332.75	0.0018
333.11	0.0016
333.48	0.0013
333.84	0.0009
334.21	0.0009
334.58	0.0000
334.94	0.0003
335.31	-0.0003
335.67	-0.0002
336.04	0.0007
336.40	0.0014
336.77	0.0014
337.13	0.0014
337.50	0.0040
337.86	0.0031
338.22	0.0005
338.59	-0.0014
338.95	0.0014
339.32	-0.0080
339.68	0.0043
340.05	0.0026
340.41	0.0025
340.78	0.0027
341.14	0.0026
341.51	0.0018
341.87	0.0015
342.24	0.0014
342.60	0.0017
342.96	0.0008
343.33	0.0008
343.69	0.0026
344.06	0.0033
344.42	0.0043
344.79	0.0040
345.15	0.0034
345.51	0.0045
345.88	0.0066
346.24	0.0188
346.61	-0.0095
346.97	0.0033
347.34	0.0039
347.70	0.0030
348.06	0.0038
348.43	0.0039
348.79	0.0053
349.16	0.0041
349.52	0.0000
349.88	0.0029
350.25	0.0031
350.61	0.0001
350.97	-0.0030
351.34	-0.0004
351.70	0.0015
352.07	0.0016
352.43	0.0020
352.79	0.0025
353.16	0.0028
353.52	0.0037
353.88	0.0035
354.25	0.0029
354.61	0.0028
354.97	0.0022
355.34	0.0020
355.70	0.0022
356.06	0.0020
356.43	0.0014
356.79	0.0012
357.15	0.0024
357.52	0.0019
357.88	0.0005
358.24	0.0004
358.60	0.0023
358.97	0.0052
359.33	0.0060
359.69	0.0058
360.06	0.0069
360.42	0.0061
360.78	0.0057
361.14	0.0060
361.51	0.0031
361.87	0.0044
362.23	0.0050
362.60	0.0066
362.96	0.0110
363.32	0.0073
363.68	0.0071
364.05	0.0058
364.41	0.0044
364.77	0.0035
365.13	0.0025
365.50	0.0028
365.86	0.0025
366.22	0.0048
366.58	0.0064
366.95	0.0060
367.31	0.0078
367.67	0.0119
368.03	0.0088
368.39	0.0061
368.76	0.0049
369.12	0.0048
369.48	0.0055
369.84	0.0058
370.20	0.0043
370.57	0.0052
370.93	0.0062
371.29	0.0050
371.65	0.0052
372.01	0.0057
372.38	0.0049
372.74	0.0045
373.10	0.0028
373.46	0.0013
373.82	0.0070
374.18	0.0092
374.55	0.0077
374.91	0.0075
375.27	0.0072
375.63	0.0082
375.99	0.0072
376.35	0.0066
376.71	0.0057
377.08	0.0028
377.44	-0.0019
377.80	-0.0000
378.16	0.0024
378.52	0.0061
378.88	0.0045
379.24	0.0059
379.60	0.0085
379.97	0.0106
380.33	0.0056
380.69	0.0062
381.05	0.0061
381.41	0.0070
381.77	0.0019
382.13	0.0016
382.49	0.0017
382.85	0.0066
383.21	0.0158
383.57	0.0173
383.94	0.0206
384.30	0.0277
384.66	0.0226
385.02	0.0273
385.38	0.0191
385.74	0.0167
386.10	0.0113
386.46	0.0090
386.82	0.0084
387.18	0.0090
387.54	0.0068
387.90	0.0070
388.26	0.0074
388.62	0.0102
388.98	0.0093
389.34	0.0092
389.70	0.0118
390.06	0.0121
390.42	0.0130
390.78	0.0118
391.14	0.0113
391.50	0.0150
391.86	0.0142
392.22	0.0113
392.58	0.0114
392.94	0.0109
393.30	0.0108
393.66	0.0113
394.02	0.0108
394.38	0.0153
394.74	0.0168
395.10	0.0200
395.46	0.0233
395.82	0.0207
396.18	0.0211
396.54	0.0182
396.90	0.0163
397.26	0.0155
397.62	0.0142
397.98	0.0144
398.34	0.0144
398.70	0.0145
399.05	0.0164
399.41	0.0145
399.77	0.0137
400.13	0.0154
400.49	0.0159
400.85	0.0218
401.21	0.0201
401.57	0.0185
401.93	0.0175
402.29	0.0192
402.65	0.0172
403.00	0.0163
403.36	0.0134
403.72	0.0130
404.08	0.0121
404.44	0.0123
404.80	0.0093
405.16	0.0138
405.52	0.0161
405.87	0.0163
406.23	0.0155
406.59	0.0144
406.95	0.0164
407.31	0.0152
407.67	0.0158
408.03	0.0155
408.38	0.0139
408.74	0.0151
409.10	0.0163
409.46	0.0153
409.82	0.0166
410.17	0.0159
410.53	0.0181
410.89	0.0214
411.25	0.0204
411.61	0.0219
411.97	0.0227
412.32	0.0238
412.68	0.0274
413.04	0.0230
413.40	0.0228
413.75	0.0243
414.11	0.0242
414.47	0.0265
414.83	0.0277
415.19	0.0264
415.54	0.0296
415.90	0.0287
416.26	0.0248
416.62	0.0271
416.97	0.0232
417.33	0.0202
417.69	0.0202
418.05	0.0196
418.40	0.0193
418.76	0.0211
419.12	0.0189
419.48	0.0204
419.83	0.0218
420.19	0.0219
420.55	0.0220
420.90	0.0210
421.26	0.0209
421.62	0.0221
421.98	0.0232
422.33	0.0239
422.69	0.0232
423.05	0.0229
423.40	0.0249
423.76	0.0252
424.12	0.0256
424.47	0.0249
424.83	0.0243
425.19	0.0257
425.54	0.0265
425.90	0.0253
426.26	0.0263
426.61	0.0263
426.97	0.0265
427.33	0.0233
427.68	0.0230
428.04	0.0232
428.40	0.0236
428.75	0.0238
429.11	0.0234
429.47	0.0232
429.82	0.0270
430.18	0.0270
430.53	0.0259
430.89	0.0269
431.25	0.0259
431.60	0.0285
431.96	0.0293
432.31	0.0291
432.67	0.0309
433.03	0.0313
433.38	0.0303
433.74	0.0304
434.09	0.0286
434.45	0.0268
434.81	0.0272
435.16	0.0277
435.52	0.0274
435.87	0.0282
436.23	0.0311
436.58	0.0313
436.94	0.0336
437.30	0.0324
437.65	0.0313
438.01	0.0345
438.36	0.0369
438.72	0.0373
439.07	0.0397
439.43	0.0392
439.78	0.0424
440.14	0.0431
440.49	0.0393
440.85	0.0373
441.20	0.0350
441.56	0.0337
441.91	0.0349
442.27	0.0345
442.62	0.0344
442.98	0.0356
443.33	0.0361
443.69	0.0360
444.04	0.0363
444.40	0.0368
444.75	0.0381
445.11	0.0378
445.46	0.0394
445.82	0.0402
446.17	0.0403
446.53	0.0404
446.88	0.0379
447.23	0.0366
447.59	0.0369
447.94	0.0345
448.30	0.0371
448.65	0.0401
449.01	0.0404
449.36	0.0407
449.72	0.0426
450.07	0.0447
450.42	0.0472
450.78	0.0439
451.13	0.0423
451.49	0.0438
451.84	0.0451
452.19	0.0443
452.55	0.0422
452.90	0.0429
453.26	0.0432
453.61	0.0425
453.96	0.0413
454.32	0.0421
454.67	0.0418
455.02	0.0455
455.38	0.0447
455.73	0.0453
456.09	0.0454
456.44	0.0462
456.79	0.0464
457.15	0.0455
457.50	0.0443
457.85	0.0436
458.21	0.0432
458.56	0.0430
458.91	0.0437
459.27	0.0444
459.62	0.0467
459.97	0.0482
460.32	0.0511
460.68	0.0514
461.03	0.0532
461.38	0.0526
461.74	0.0535
462.09	0.0564
462.44	0.0566
462.80	0.0581
463.15	0.0596
463.50	0.0593
463.85	0.0607
464.21	0.0627
464.56	0.0590
464.91	0.0587
465.26	0.0612
465.62	0.0615
465.97	0.0619
466.32	0.0609
466.67	0.0580
467.03	0.0573
467.38	0.0552
467.73	0.0511
468.08	0.0509
468.44	0.0529
468.79	0.0550
469.14	0.0566
469.49	0.0598
469.85	0.0634
470.20	0.0645
470.55	0.0645
470.90	0.0640
471.25	0.0647
471.61	0.0624
471.96	0.0607
472.31	0.0591
472.66	0.0609
473.01	0.0625
473.36	0.0615
473.72	0.0605
474.07	0.0626
474.42	0.0647
474.77	0.0671
475.12	0.0691
475.47	0.0666
475.83	0.0652
476.18	0.0642
476.53	0.0629
476.88	0.0622
477.23	0.0592
477.58	0.0585
477.93	0.0607
478.28	0.0637
478.64	0.0659
478.99	0.0653
479.34	0.0662
479.69	0.0694
480.04	0.0714
480.39	0.0737
480.74	0.0733
481.09	0.0724
481.44	0.0736
481.79	0.0736
482.15	0.0729
482.50	0.0723
482.85	0.0715
483.20	0.0708
483.55	0.0710
483.90	0.0732
484.25	0.0754
484.60	0.0768
484.95	0.0760
485.30	0.0747
485.65	0.0767
486.00	0.0781
486.35	0.0783
486.70	0.0765
487.05	0.0756
487.40	0.0753
487.75	0.0772
488.10	0.0765
488.45	0.0780
488.80	0.0783
489.15	0.0782
489.50	0.0787
489.85	0.0805
490.20	0.0800
490.55	0.0816
490.90	0.0801
491.25	0.0812
491.60	0.0835
491.95	0.0827
492.30	0.0836
492.65	0.0847
493.00	0.0837
493.35	0.0837
493.70	0.0839
494.05	0.0829
494.40	0.0852
494.75	0.0847
495.10	0.0844
495.45	0.0866
495.80	0.0875
496.15	0.0861
496.50	0.0876
496.84	0.0881
497.19	0.0889
497.54	0.0903
497.89	0.0894
498.24	0.0910
498.59	0.0938
498.94	0.0938
499.29	0.0943
499.64	0.0963
499.99	0.0963
500.33	0.0974
500.68	0.0976
501.03	0.0967
501.38	0.0991
501.73	0.1002
502.08	0.0992
502.43	0.0985
502.77	0.0986
503.12	0.0983
503.47	0.0985
503.82	0.0969
504.17	0.0971
504.52	0.0979
504.86	0.0990
505.21	0.0983
505.56	0.0974
505.91	0.0980
506.26	0.0985
506.61	0.0986
506.95	0.0988
507.30	0.0998
507.65	0.1008
508.00	0.1025
508.35	0.1031
508.69	0.1044
509.04	0.1045
509.39	0.1041
509.74	0.1052
510.08	0.1065
510.43	0.1089
510.78	0.1091
511.13	0.1091
511.47	0.1105
511.82	0.1119
512.17	0.1136
512.52	0.1131
512.86	0.1121
513.21	0.1134
513.56	0.1138
513.91	0.1135
514.25	0.1126
514.60	0.1118
514.95	0.1126
515.30	0.1127
515.64	0.1115
515.99	0.1110
516.34	0.1128
516.68	0.1133
517.03	0.1126
517.38	0.1147
517.72	0.1141
518.07	0.1157
518.42	0.1160
518.76	0.1150
519.11	0.1162
519.46	0.1160
519.80	0.1155
520.15	0.1168
520.50	0.1164
520.84	0.1181
521.19	0.1207
521.54	0.1216
521.88	0.1243
522.23	0.1241
522.58	0.1238
522.92	0.1232
523.27	0.1232
523.61	0.1228
523.96	0.1223
524.31	0.1223
524.65	0.1249
525.00	0.1269
525.34	0.1299
525.69	0.1303
526.04	0.1302
526.38	0.1314
526.73	0.1303
527.07	0.1282
527.42	0.1284
527.76	0.1272
528.11	0.1283
528.46	0.1282
528.80	0.1295
529.15	0.1312
529.49	0.1334
529.84	0.1318
530.18	0.1330
530.53	0.1347
530.87	0.1358
531.22	0.1375
531.56	0.1389
531.91	0.1381
532.25	0.1385
532.60	0.1389
532.94	0.1378
533.29	0.1378
533.63	0.1351
533.98	0.1334
534.32	0.1355
534.67	0.1382
535.01	0.1411
535.36	0.1444
535.70	0.1443
536.05	0.1444
536.39	0.1453
536.74	0.1437
537.08	0.1437
537.43	0.1436
537.77	0.1432
538.12	0.1435
538.46	0.1459
538.80	0.1485
539.15	0.1497
539.49	0.1504
539.84	0.1502
540.18	0.1521
540.53	0.1545
540.87	0.1546
541.21	0.1535
541.56	0.1539
541.90	0.1552
542.25	0.1564
542.59	0.1542
542.93	0.1548
543.28	0.1546
543.62	0.1578
543.97	0.1599
544.31	0.1596
544.65	0.1579
545.00	0.1587
545.34	0.1591
545.68	0.1598
546.03	0.1589
546.37	0.1570
546.71	0.1597
547.06	0.1625
547.40	0.1637
547.74	0.1636
548.09	0.1666
548.43	0.1667
548.77	0.1675
549.12	0.1667
549.46	0.1672
549.80	0.1670
550.15	0.1676
550.49	0.1685
550.83	0.1708
551.17	0.1728
551.52	0.1737
551.86	0.1758
552.20	0.1779
552.55	0.1776
552.89	0.1765
553.23	0.1752
553.57	0.1756
553.92	0.1750
554.26	0.1733
554.60	0.1733
554.94	0.1762
555.29	0.1767
555.63	0.1785
555.97	0.1786
556.31	0.1814
556.66	0.1836
557.00	0.1815
557.34	0.1810
557.68	0.1813
558.02	0.1826
558.37	0.1838
558.71	0.1838
559.05	0.1868
559.39	0.1885
559.73	0.1868
560.08	0.1894
560.42	0.1879
560.76	0.1865
561.10	0.1866
561.44	0.1820
561.78	0.1849
562.13	0.1866
562.47	0.1820
562.81	0.1830
563.15	0.1867
563.49	0.1875
563.83	0.1909
564.17	0.1898
564.52	0.1890
564.86	0.1938
565.20	0.1961
565.54	0.1962
565.88	0.1966
566.22	0.1964
566.56	0.1958
566.90	0.2009
567.24	0.2010
567.59	0.2004
567.93	0.1981
568.27	0.1984
568.61	0.1991
568.95	0.2013
569.29	0.2003
569.63	0.2037
569.97	0.2030
570.31	0.2071
570.65	0.2097
570.99	0.2114
571.33	0.2155
571.67	0.2153
572.01	0.2140
572.35	0.2162
572.69	0.2160
573.03	0.2147
573.37	0.2134
573.71	0.2102
574.05	0.2101
574.39	0.2100
574.73	0.2110
575.07	0.2108
575.41	0.2126
575.75	0.2123
576.09	0.2133
576.43	0.2168
576.77	0.2184
577.11	0.2194
577.45	0.2202
577.79	0.2188
578.13	0.2213
578.47	0.2211
578.81	0.2202
579.15	0.2206
579.49	0.2222
579.83	0.2214
580.17	0.2199
580.51	0.2221
580.85	0.2236
581.19	0.2246
581.53	0.2250
581.87	0.2251
582.20	0.2284
582.54	0.2296
582.88	0.2300
583.22	0.2307
583.56	0.2305
583.90	0.2320
584.24	0.2346
584.58	0.2359
584.92	0.2368
585.25	0.2344
585.59	0.2337
585.93	0.2347
586.27	0.2346
586.61	0.2302
586.95	0.2293
587.29	0.2334
587.62	0.2370
587.96	0.2386
588.30	0.2421
588.64	0.2438
588.98	0.2461
589.31	0.2496
589.65	0.2483
589.99	0.2488
590.33	0.2509
590.67	0.2483
591.01	0.2489
591.34	0.2509
591.68	0.2496
592.02	0.2518
592.36	0.2515
592.69	0.2507
593.03	0.2528
593.37	0.2539
593.71	0.2530
594.04	0.2539
594.38	0.2547
594.72	0.2566
595.06	0.2586
595.39	0.2573
595.73	0.2563
596.07	0.2586
596.41	0.2578
596.74	0.2570
597.08	0.2588
597.42	0.2586
597.76	0.2604
598.09	0.2582
598.43	0.2588
598.77	0.2593
599.10	0.2585
599.44	0.2543
599.78	0.2545
600.11	0.2559
600.45	0.2616
600.79	0.2633
601.12	0.2662
601.46	0.2691
601.80	0.2737
602.13	0.2742
602.47	0.2719
602.81	0.2703
603.14	0.2685
603.48	0.2683
603.82	0.2667
604.15	0.2669
604.49	0.2706
604.82	0.2750
605.16	0.2787
605.50	0.2804
605.83	0.2814
606.17	0.2824
606.50	0.2823
606.84	0.2793
607.18	0.2784
607.51	0.2756
607.85	0.2780
608.18	0.2784
608.52	0.2795
608.86	0.2822
609.19	0.2839
609.53	0.2854
609.86	0.2878
610.20	0.2862
610.53	0.2870
610.87	0.2871
611.20	0.2860
611.54	0.2856
611.87	0.2838
612.21	0.2851
612.54	0.2831
612.88	0.2830
613.21	0.2855
613.55	0.2848
613.88	0.2851
614.22	0.2864
614.55	0.2859
614.89	0.2907
615.22	0.2912
615.56	0.2913
615.89	0.2946
616.23	0.2986
616.56	0.2998
616.90	0.2980
617.23	0.2990
617.57	0.3001
617.90	0.3006
618.24	0.2993
618.57	0.2980
618.90	0.2996
619.24	0.3007
619.57	0.2985
619.91	0.3010
620.24	0.3033
620.58	0.3052
620.91	0.3067
621.24	0.3085
621.58	0.3098
621.91	0.3109
622.25	0.3117
622.58	0.3094
622.91	0.3113
623.25	0.3118
623.58	0.3123
623.91	0.3140
624.25	0.3145
624.58	0.3133
624.92	0.3118
625.25	0.3099
625.58	0.3105
625.92	0.3091
626.25	0.3090
626.58	0.3118
626.92	0.3111
627.25	0.3151
627.58	0.3169
627.91	0.3171
628.25	0.3174
628.58	0.3193
628.91	0.3167
629.25	0.3222
629.58	0.3220
629.91	0.3227
630.25	0.3218
630.58	0.3211
630.91	0.3253
631.24	0.3309
631.58	0.3278
631.91	0.3325
632.24	0.3304
632.57	0.3372
632.91	0.3403
633.24	0.3379
633.57	0.3346
633.90	0.3367
634.24	0.3370
634.57	0.3414
634.90	0.3373
635.23	0.3374
635.56	0.3396
635.90	0.3443
636.23	0.3476
636.56	0.3479
636.89	0.3486
637.22	0.3520
637.56	0.3512
637.89	0.3500
638.22	0.3489
638.55	0.3477
638.88	0.3463
639.21	0.3482
639.55	0.3474
639.88	0.3525
640.21	0.3557
640.54	0.3576
640.87	0.3554
641.20	0.3577
